#  

#      WAVELENGTH      THROUGHPUT
#       angstroms                
4561.88 0.0008310053
4562.38 0.0008633497
4562.88 0.0008957432
4563.39 0.0009281240
4563.89 0.0009606807
4564.40 0.0009931273
4564.90 0.0010255611
4565.40 0.0010580449
4565.91 0.0010905471
4566.41 0.0011230367
4566.92 0.0011557656
4567.42 0.0011883199
4567.92 0.0012207348
4568.43 0.0012534835
4568.94 0.0012862834
4569.44 0.0013189083
4569.94 0.0013514252
4570.45 0.0013842767
4570.95 0.0014169873
4571.46 0.0014497157
4571.96 0.0014826210
4572.47 0.0015153843
4572.97 0.0015481968
4573.48 0.0015809973
4573.98 0.0016140063
4574.49 0.0016468738
4574.99 0.0016795685
4575.50 0.0017126605
4576.01 0.0017455796
4576.51 0.0017785188
4577.02 0.0018114764
4577.52 0.0018444532
4578.03 0.0018776393
4578.53 0.0019106799
4579.04 0.0019438982
4579.54 0.0019767853
4580.05 0.0020101292
4580.56 0.0020460347
4581.06 0.0020815803
4581.57 0.0021174879
4582.07 0.0021532443
4582.58 0.0021892272
4583.09 0.0022250576
4583.59 0.0022606989
4584.10 0.0022967407
4584.60 0.0023326256
4585.11 0.0023685646
4585.62 0.0024046616
4586.12 0.0024404320
4586.63 0.0024764308
4587.13 0.0025124142
4587.64 0.0025486253
4588.15 0.0025848554
4588.66 0.0026207541
4589.16 0.0026570217
4589.67 0.0026931356
4590.18 0.0027325440
4590.69 0.0027783204
4591.19 0.0028238561
4591.70 0.0028694600
4592.21 0.0029150886
4592.71 0.0029607411
4593.22 0.0030066365
4593.73 0.0030521135
4594.24 0.0030980551
4594.74 0.0031435827
4595.25 0.0031896175
4595.76 0.0032351909
4596.27 0.0032812706
4596.77 0.0033271056
4597.28 0.0033730139
4597.79 0.0034191705
4598.30 0.0034651680
4598.80 0.0035111427
4599.31 0.0035573650
4599.82 0.0036036584
4600.33 0.0036606113
4600.84 0.0037239244
4601.35 0.0037875767
4601.85 0.0038509556
4602.36 0.0039140666
4602.87 0.0039778177
4603.38 0.0040412951
4603.89 0.0041048647
4604.39 0.0041681044
4604.90 0.0042320467
4605.41 0.0042956504
4605.92 0.0043593456
4606.43 0.0044233861
4606.94 0.0044874613
4607.45 0.0045509456
4607.95 0.0046148262
4608.47 0.0046793130
4608.97 0.0047429728
4609.48 0.0048068961
4609.99 0.0048712189
4610.50 0.0049513092
4611.01 0.0050312590
4611.52 0.0051120228
4612.03 0.0051924449
4612.54 0.0052729873
4613.04 0.0053531062
4613.56 0.0054341190
4614.06 0.0055147075
4614.57 0.0055954112
4615.09 0.0056765438
4615.60 0.0057577160
4616.10 0.0058381529
4616.61 0.0059190988
4617.13 0.0060003960
4617.64 0.0060814259
4618.15 0.0061628050
4618.66 0.0062439223
4619.17 0.0063250790
4619.68 0.0064062716
4620.19 0.0064966586
4620.70 0.0066029534
4621.21 0.0067093075
4621.72 0.0068158215
4622.23 0.0069222793
4622.74 0.0070293922
4623.25 0.0071354457
4623.76 0.0072427985
4624.27 0.0073494753
4624.78 0.0074563942
4625.29 0.0075632684
4625.80 0.0076707119
4626.31 0.0077777913
4626.83 0.0078853331
4627.34 0.0079930432
4627.85 0.0080997861
4628.36 0.0082070824
4628.87 0.0083149395
4629.38 0.0084223374
4629.89 0.0085292813
4630.40 0.0086566157
4630.91 0.0087901833
4631.43 0.0089231757
4631.94 0.0090554739
4632.45 0.0091892392
4632.96 0.0093224317
4633.47 0.0094556987
4633.98 0.0095897969
4634.50 0.0097231812
4635.01 0.0098566380
4635.52 0.0099902736
4636.04 0.0101252507
4636.54 0.0102582769
4637.06 0.0103921220
4637.57 0.0105266517
4638.08 0.0106606076
4638.59 0.0107940389
4639.10 0.0109282900
4639.62 0.0110630765
4640.13 0.0112064059
4640.64 0.0113753080
4641.15 0.0115460596
4641.67 0.0117160595
4642.18 0.0118861401
4642.69 0.0120572996
4643.21 0.0122283838
4643.72 0.0123979368
4644.23 0.0125685403
4644.74 0.0127398760
4645.26 0.0129106440
4645.77 0.0130823070
4646.29 0.0132532370
4646.80 0.0134242536
4647.31 0.0135953541
4647.82 0.0137666920
4648.34 0.0139379630
4648.85 0.0141094977
4649.36 0.0142809394
4649.88 0.0144534429
4650.39 0.0146549773
4650.90 0.0148648635
4651.42 0.0150768169
4651.93 0.0152878582
4652.44 0.0154992537
4652.96 0.0157105615
4653.47 0.0159231624
4653.99 0.0161348713
4654.50 0.0163464924
4655.02 0.0165606288
4655.53 0.0167716301
4656.05 0.0169837337
4656.56 0.0171959709
4657.07 0.0174095344
4657.59 0.0176209557
4658.10 0.0178334891
4658.62 0.0180473186
4659.13 0.0182602591
4659.64 0.0184723401
4660.16 0.0186970236
4660.67 0.0189441715
4661.19 0.0191917004
4661.70 0.0194403212
4662.22 0.0196881202
4662.73 0.0199360126
4663.25 0.0201838154
4663.77 0.0204333916
4664.28 0.0206816958
4664.80 0.0209301460
4665.31 0.0211787291
4665.83 0.0214288252
4666.34 0.0216764643
4666.85 0.0219253939
4667.37 0.0221759032
4667.89 0.0224253700
4668.40 0.0226749350
4668.92 0.0229246244
4669.43 0.0231744383
4669.95 0.0234246263
4670.47 0.0236998266
4670.98 0.0239781254
4671.50 0.0242536358
4672.01 0.0245308568
4672.53 0.0248095219
4673.05 0.0250869990
4673.56 0.0253646033
4674.08 0.0256426094
4674.60 0.0259218159
4675.11 0.0262000837
4675.63 0.0264781412
4676.14 0.0267566181
4676.66 0.0270353134
4677.18 0.0273141220
4677.69 0.0275943485
4678.21 0.0278720679
4678.72 0.0281512080
4679.24 0.0284320735
4679.76 0.0287114759
4680.27 0.0290157952
4680.79 0.0293414722
4681.31 0.0296694319
4681.83 0.0299957073
4682.34 0.0303221352
4682.86 0.0306487372
4683.38 0.0309770277
4683.90 0.0313042198
4684.41 0.0316312730
4684.93 0.0319603050
4685.45 0.0322865494
4685.97 0.0326145186
4686.48 0.0329440817
4687.00 0.0332722645
4687.52 0.0335991010
4688.03 0.0339279428
4688.55 0.0342581534
4689.07 0.0345873057
4689.59 0.0349182210
4690.11 0.0352741647
4690.63 0.0357300131
4691.14 0.0361860931
4691.66 0.0366445623
4692.18 0.0371015361
4692.70 0.0375583471
4693.22 0.0380158193
4693.74 0.0384756823
4694.25 0.0389310376
4694.77 0.0393892492
4695.29 0.0398498007
4695.81 0.0403083714
4696.33 0.0407676399
4696.84 0.0412245742
4697.36 0.0416861000
4697.88 0.0421461620
4698.40 0.0426063594
4698.93 0.0430711529
4699.44 0.0435296431
4699.96 0.0439905384
4700.48 0.0443785638
4701.00 0.0447589848
4701.52 0.0451392674
4702.04 0.0455200822
4702.56 0.0459028133
4703.08 0.0462835735
4703.60 0.0466649192
4704.11 0.0470464273
4704.63 0.0474280887
4705.15 0.0478103101
4705.67 0.0481923756
4706.19 0.0485746299
4706.71 0.0489574254
4707.23 0.0493404378
4707.75 0.0497254401
4708.27 0.0501087766
4708.79 0.0504922688
4709.31 0.0508777431
4709.83 0.0512619667
4710.35 0.0516541629
4710.87 0.0520507376
4711.40 0.0524489990
4711.92 0.0528459759
4712.44 0.0532431538
4712.96 0.0536423723
4713.48 0.0540379804
4714.00 0.0544360084
4714.52 0.0548339906
4715.04 0.0552344149
4715.56 0.0556308439
4716.08 0.0560296946
4716.60 0.0564306802
4717.12 0.0568299814
4717.64 0.0572271492
4718.16 0.0576309138
4718.69 0.0580311292
4719.21 0.0584312021
4719.73 0.0588318388
4720.25 0.0592454132
4720.77 0.0596699096
4721.29 0.0600946220
4721.81 0.0605215818
4722.33 0.0609447614
4722.85 0.0613705944
4723.38 0.0617961975
4723.90 0.0622243989
4724.42 0.0626503554
4724.94 0.0630749364
4725.46 0.0635036379
4725.98 0.0639305794
4726.51 0.0643578747
4727.03 0.0647853730
4727.55 0.0652153901
4728.07 0.0656432159
4728.60 0.0660716881
4729.12 0.0665023930
4729.64 0.0669308163
4730.16 0.0673486804
4730.69 0.0677444580
4731.21 0.0681381626
4731.73 0.0685319967
4732.25 0.0689241898
4732.78 0.0693206557
4733.30 0.0697150379
4733.82 0.0701099276
4734.34 0.0705050741
4734.87 0.0709004628
4735.39 0.0712960106
4735.91 0.0716936213
4736.44 0.0720898876
4736.96 0.0724859585
4737.48 0.0728826355
4738.01 0.0732813688
4738.53 0.0736784396
4739.05 0.0740753235
4739.58 0.0744750078
4740.10 0.0748795659
4740.62 0.0753129364
4741.15 0.0757445145
4741.67 0.0761808196
4742.19 0.0766152687
4742.72 0.0770495561
4743.24 0.0774868001
4743.77 0.0779193345
4744.29 0.0783545253
4744.81 0.0787923816
4745.34 0.0792280886
4745.86 0.0796619745
4746.39 0.0801005146
4746.91 0.0805393180
4747.44 0.0809762111
4747.96 0.0814132616
4748.49 0.0818526790
4749.01 0.0822902471
4749.53 0.0827282920
4750.06 0.0831702359
4750.58 0.0836455587
4751.11 0.0841205935
4751.63 0.0845963000
4752.16 0.0850743952
4752.68 0.0855503970
4753.20 0.0860245353
4753.73 0.0865034569
4754.26 0.0869807289
4754.78 0.0874576854
4755.31 0.0879354130
4755.83 0.0884156582
4756.36 0.0888938592
4756.88 0.0893722712
4757.41 0.0898532292
4757.94 0.0903321870
4758.46 0.0908114073
4758.98 0.0912913037
4759.51 0.0917735691
4760.04 0.0922482207
4760.56 0.0926547856
4761.09 0.0930653468
4761.61 0.0934741058
4762.14 0.0938832005
4762.67 0.0942946707
4763.19 0.0947022084
4763.72 0.0951118544
4764.24 0.0955239467
4764.77 0.0959343044
4765.30 0.0963449288
4765.82 0.0967557307
4766.35 0.0971686239
4766.87 0.0975779562
4767.40 0.0979915622
4767.93 0.0984031639
4768.46 0.0988173256
4768.98 0.0992297295
4769.51 0.0996399488
4770.04 0.1000592870
4770.56 0.1005430180
4771.09 0.1010269425
4771.62 0.1015136458
4772.14 0.1019957721
4772.67 0.1024804561
4773.20 0.1029679889
4773.72 0.1034532613
4774.25 0.1039366293
4774.78 0.1044247455
4775.31 0.1049136147
4775.83 0.1053999993
4776.36 0.1058864212
4776.89 0.1063757858
4777.42 0.1068627755
4777.94 0.1073504065
4778.47 0.1078381650
4779.00 0.1083260955
4779.53 0.1088144887
4780.06 0.1093031887
4780.59 0.1097955289
4781.11 0.1102832079
4781.64 0.1107760285
4782.17 0.1112662906
4782.69 0.1117572185
4783.22 0.1122484311
4783.75 0.1127399284
4784.28 0.1132338171
4784.81 0.1137261769
4785.34 0.1142182369
4785.87 0.1147133643
4786.39 0.1152038208
4786.92 0.1156995850
4787.45 0.1161930130
4787.98 0.1166889012
4788.51 0.1171833484
4789.04 0.1176747814
4789.57 0.1181719997
4790.10 0.1186670998
4790.63 0.1191640343
4791.16 0.1196635465
4791.68 0.1201584679
4792.21 0.1206563507
4792.74 0.1211541611
4793.27 0.1216549995
4793.80 0.1221534728
4794.33 0.1226526171
4794.86 0.1231544068
4795.39 0.1236512660
4795.92 0.1241532710
4796.45 0.1246535630
4796.98 0.1251565021
4797.51 0.1256570095
4798.04 0.1261554805
4798.57 0.1266593084
4799.10 0.1271606508
4799.63 0.1276628457
4800.16 0.1281366372
4800.69 0.1285352935
4801.22 0.1289364509
4801.75 0.1293378734
4802.28 0.1297415023
4802.81 0.1301413343
4803.34 0.1305452248
4803.87 0.1309493188
4804.40 0.1313516191
4804.93 0.1317543647
4805.47 0.1321595265
4806.00 0.1325625614
4806.53 0.1329657444
4807.06 0.1333672484
4807.59 0.1337726373
4808.12 0.1341768251
4808.65 0.1345808909
4809.18 0.1349877647
4809.71 0.1353902364
4810.24 0.1358238377
4810.77 0.1362838910
4811.31 0.1367492827
4811.83 0.1372101911
4812.37 0.1376759618
4812.90 0.1381419225
4813.43 0.1386055549
4813.96 0.1390696466
4814.50 0.1395366271
4815.02 0.1399984874
4815.56 0.1404658765
4816.09 0.1409307255
4816.62 0.1413960634
4817.16 0.1418638132
4817.69 0.1423274586
4818.22 0.1427957685
4818.75 0.1432619255
4819.28 0.1437283918
4819.81 0.1441928837
4820.35 0.1446245492
4820.88 0.1450346556
4821.41 0.1454447588
4821.94 0.1458573555
4822.48 0.1462661285
4823.01 0.1466789305
4823.54 0.1470918803
4824.07 0.1475013652
4824.61 0.1479151525
4825.14 0.1483268898
4825.68 0.1487410337
4826.21 0.1491533667
4826.74 0.1495638283
4827.27 0.1499785968
4827.81 0.1503917651
4828.34 0.1508050209
4828.87 0.1512164631
4829.41 0.1516323375
4829.94 0.1520460054
4830.47 0.1524474399
4831.01 0.1528490816
4831.54 0.1532467938
4832.07 0.1536487860
4832.61 0.1540512570
4833.14 0.1544519408
4833.68 0.1548527677
4834.21 0.1552518058
4834.75 0.1556571566
4835.28 0.1560582381
4835.81 0.1564579821
4836.35 0.1568617734
4836.88 0.1572662259
4837.41 0.1576664953
4837.95 0.1580689964
4838.48 0.1584719773
4839.02 0.1588769528
4839.55 0.1592779226
4840.09 0.1596668566
4840.62 0.1599680229
4841.15 0.1602720112
4841.69 0.1605760960
4842.23 0.1608791812
4842.76 0.1611820243
4843.29 0.1614835946
4843.83 0.1617883856
4844.37 0.1620936028
4844.90 0.1623976045
4845.44 0.1627015215
4845.97 0.1630069292
4846.50 0.1633096020
4847.04 0.1636137084
4847.58 0.1639197937
4848.11 0.1642245712
4848.64 0.1645278584
4849.18 0.1648343159
4849.72 0.1651394647
4850.25 0.1654859742
4850.79 0.1658811319
4851.32 0.1662726612
4851.86 0.1666683484
4852.39 0.1670601334
4852.93 0.1674559872
4853.47 0.1678522879
4854.01 0.1682471150
4854.54 0.1686436737
4855.08 0.1690386111
4855.61 0.1694317096
4856.15 0.1698288260
4856.69 0.1702240127
4857.22 0.1706198278
4857.76 0.1710138025
4858.30 0.1714119805
4858.83 0.1718079544
4859.37 0.1722042842
4859.91 0.1726025319
4860.44 0.1728199239
4860.98 0.1730011319
4861.52 0.1731820515
4862.05 0.1733628248
4862.59 0.1735444134
4863.12 0.1737240947
4863.67 0.1739066457
4864.20 0.1740875620
4864.74 0.1742678961
4865.28 0.1744500284
4865.82 0.1746321610
4866.35 0.1748126379
4866.89 0.1749932964
4867.43 0.1751758458
4867.97 0.1753585225
4868.50 0.1755390148
4869.04 0.1757216724
4869.57 0.1759024542
4870.11 0.1760960289
4870.65 0.1763302931
4871.19 0.1765635847
4871.73 0.1767971420
4872.26 0.1770294522
4872.80 0.1772642708
4873.34 0.1774989547
4873.88 0.1777328836
4874.42 0.1779671335
4874.96 0.1782026899
4875.50 0.1784359580
4876.03 0.1786702588
4876.57 0.1789046982
4877.11 0.1791402079
4877.65 0.1793739018
4878.19 0.1796099632
4878.73 0.1798448119
4879.27 0.1800799451
4879.81 0.1803163325
4880.34 0.1805421716
4880.88 0.1807658664
4881.42 0.1809873200
4881.96 0.1812113787
4882.50 0.1814355198
4883.04 0.1816574727
4883.58 0.1818816126
4884.12 0.1821058518
4884.66 0.1823281215
4885.20 0.1825528538
4885.74 0.1827762392
4886.28 0.1829999438
4886.81 0.1832227039
4887.36 0.1834479826
4887.90 0.1836733067
4888.44 0.1838961098
4888.98 0.1841211585
4889.51 0.1843441963
4890.06 0.1845628759
4890.60 0.1847214122
4891.14 0.1848801082
4891.68 0.1850395513
4892.22 0.1851975541
4892.76 0.1853570048
4893.30 0.1855169441
4893.84 0.1856752215
4894.38 0.1858351307
4894.92 0.1859947581
4895.46 0.1861531649
4896.00 0.1863115104
4896.54 0.1864717259
4897.08 0.1866318426
4897.62 0.1867902796
4898.16 0.1869504043
4898.70 0.1871091772
4899.25 0.1872698600
4899.78 0.1874291142
4900.33 0.1875834630
4900.87 0.1877313370
4901.41 0.1878786121
4901.95 0.1880274294
4902.50 0.1881765503
4903.03 0.1883240929
4903.58 0.1884730869
4904.12 0.1886220176
4904.66 0.1887696443
4905.20 0.1889183324
4905.74 0.1890671404
4906.29 0.1892167737
4906.83 0.1893646962
4907.37 0.1895140721
4907.91 0.1896620893
4908.45 0.1898120198
4908.99 0.1899604220
4909.54 0.1901105013
4910.08 0.1902625919
4910.62 0.1904251773
4911.16 0.1905894971
4911.71 0.1907534422
4912.25 0.1909160685
4912.79 0.1910803524
4913.34 0.1912447989
4913.88 0.1914077951
4914.42 0.1915723968
4914.97 0.1917362695
4915.51 0.1919004886
4916.05 0.1920637551
4916.59 0.1922287066
4917.14 0.1923937429
4917.68 0.1925576029
4918.22 0.1927213102
4918.76 0.1928865336
4919.31 0.1930518281
4919.85 0.1932162081
4920.40 0.1933501424
4920.94 0.1934732219
4921.48 0.1935952985
4922.03 0.1937187385
4922.57 0.1938420170
4923.11 0.1939641604
4923.66 0.1940873389
4924.20 0.1942105927
4924.74 0.1943328951
4925.29 0.1944552591
4925.83 0.1945785802
4926.38 0.1947021083
4926.92 0.1948243548
4927.46 0.1949469001
4928.01 0.1950707196
4928.55 0.1951946144
4929.10 0.1953175431
4929.64 0.1954418787
4930.19 0.1955694524
4930.73 0.1957044043
4931.28 0.1958410959
4931.82 0.1959779975
4932.36 0.1961133939
4932.91 0.1962503861
4933.46 0.1963873243
4934.00 0.1965231131
4934.54 0.1966595607
4935.09 0.1967961658
4935.64 0.1969330608
4936.18 0.1970688581
4936.73 0.1972063057
4937.27 0.1973423382
4937.81 0.1974794273
4938.36 0.1976153253
4938.90 0.1977527826
4939.45 0.1978901730
4939.99 0.1980261468
4940.54 0.1979792365
4941.09 0.1979305540
4941.63 0.1978823029
4942.18 0.1978334043
4942.73 0.1977844900
4943.27 0.1977359674
4943.82 0.1976867843
4944.37 0.1976377304
4944.91 0.1975892012
4945.45 0.1975402865
4946.00 0.1974907229
4946.55 0.1974413685
4947.10 0.1973924995
4947.64 0.1973436150
4948.19 0.1972942135
4948.73 0.1972446637
4949.28 0.1971954945
4949.83 0.1971456751
4950.38 0.1973939466
4950.92 0.1977744221
4951.47 0.1981590153
4952.02 0.1985441924
4952.56 0.1989252765
4953.11 0.1993105738
4953.66 0.1996963627
4954.20 0.2000784671
4954.75 0.2004604651
4955.30 0.2008466395
4955.85 0.2012327496
4956.39 0.2016156357
4956.94 0.2019983228
4957.49 0.2023853230
4958.04 0.2027723113
4958.58 0.2031556087
4959.13 0.2035430363
4959.68 0.2039305449
4960.23 0.2042034795
4960.77 0.2043190055
4961.32 0.2044347273
4961.87 0.2045494797
4962.42 0.2046652943
4962.97 0.2047812224
4963.52 0.2048960359
4964.06 0.2050115097
4964.61 0.2051269524
4965.16 0.2052430970
4965.71 0.2053577133
4966.26 0.2054738991
4966.80 0.2055892067
4967.35 0.2057053409
4967.90 0.2058202245
4968.45 0.2059365858
4969.00 0.2060525130
4969.55 0.2061685122
4970.10 0.2063234402
4970.65 0.2066581986
4971.19 0.2069899341
4971.75 0.2073252440
4972.30 0.2076604884
4972.84 0.2079922428
4973.39 0.2083279042
4973.94 0.2086610050
4974.49 0.2089969395
4975.04 0.2093295255
4975.59 0.2096658773
4976.14 0.2100022987
4976.69 0.2103354626
4977.23 0.2106687877
4977.79 0.2110060174
4978.34 0.2113432318
4978.89 0.2116778301
4979.44 0.2120149886
4979.99 0.2123522673
4980.54 0.2124170240
4981.09 0.2124774279
4981.64 0.2125383566
4982.19 0.2125985209
4982.74 0.2126589493
4983.29 0.2127188500
4983.84 0.2127794386
4984.39 0.2128396779
4984.94 0.2129004694
4985.49 0.2129611252
4986.04 0.2130212957
4986.59 0.2130812449
4987.14 0.2131419252
4987.69 0.2132023337
4988.24 0.2132622566
4988.80 0.2133229614
4989.35 0.2133837678
4989.90 0.2134439951
4990.45 0.2136201004
4991.00 0.2138228151
4991.55 0.2140234869
4992.10 0.2142265608
4992.65 0.2144278209
4993.21 0.2146311103
4993.76 0.2148332396
4994.31 0.2150354943
4994.86 0.2152386728
4995.41 0.2154401293
4995.97 0.2156438975
4996.51 0.2158456698
4997.07 0.2160496109
4997.62 0.2162515987
4998.17 0.2164555257
4998.72 0.2166583769
4999.27 0.2168615985
4999.83 0.2170662496
5000.38 0.2172619143
5000.93 0.2174520153
5001.48 0.2176429451
5002.03 0.2178340489
5002.59 0.2180260692
5003.15 0.2182182203
5003.69 0.2184084614
5004.25 0.2186006867
5004.80 0.2187910012
5005.35 0.2189836254
5005.91 0.2191751751
5006.46 0.2193669491
5007.01 0.2195577353
5007.56 0.2197503706
5008.12 0.2199429935
5008.67 0.2201338464
5009.22 0.2203267310
5009.78 0.2205195152
5010.33 0.2206706252
5010.88 0.2207953642
5011.44 0.2209209581
5011.99 0.2210461607
5012.55 0.2211717056
5013.10 0.2212962079
5013.65 0.2214217532
5014.20 0.2215463935
5014.76 0.2216723092
5015.32 0.2217981534
5015.87 0.2219225787
5016.42 0.2220477716
5016.97 0.2221728432
5017.53 0.2222988707
5018.08 0.2224237600
5018.64 0.2225491800
5019.19 0.2226760652
5019.74 0.2228009272
5020.30 0.2228810776
5020.86 0.2229219274
5021.41 0.2229628747
5021.97 0.2230039589
5022.52 0.2230449186
5023.07 0.2230861536
5023.63 0.2231270658
5024.18 0.2231680312
5024.74 0.2232091335
5025.29 0.2232499232
5025.85 0.2232909439
5026.40 0.2233321510
5026.96 0.2233734167
5027.51 0.2234140771
5028.07 0.2234550129
5028.62 0.2234960516
5029.18 0.2235370940
5029.74 0.2235785112
5030.29 0.2236802215
5030.85 0.2238342584
5031.40 0.2239893543
5031.96 0.2241446673
5032.52 0.2243005195
5033.07 0.2244563065
5033.63 0.2246111460
5034.18 0.2247672735
5034.74 0.2249220762
5035.30 0.2250783558
5035.85 0.2252339155
5036.41 0.2253896926
5036.96 0.2255447539
5037.52 0.2257012886
5038.08 0.2258577582
5038.63 0.2260127621
5039.19 0.2261693840
5039.75 0.2263261295
5040.30 0.2263726573
5040.86 0.2263278242
5041.41 0.2262830205
5041.97 0.2262379137
5042.53 0.2261926026
5043.09 0.2261476675
5043.65 0.2261022758
5044.20 0.2260572603
5044.76 0.2260119815
5045.32 0.2259665927
5045.87 0.2259214813
5046.43 0.2258763048
5046.98 0.2258311576
5047.55 0.2257851846
5048.10 0.2257398722
5048.66 0.2256943951
5049.22 0.2256485092
5049.77 0.2256034339
5050.33 0.2256874252
5050.89 0.2258581629
5051.45 0.2260302908
5052.01 0.2262024512
5052.56 0.2263737584
5053.12 0.2265467403
5053.68 0.2267182468
5054.24 0.2268899298
5054.80 0.2270626762
5055.35 0.2272340504
5055.91 0.2274063486
5056.47 0.2275785847
5057.03 0.2277515111
5057.59 0.2279229650
5058.14 0.2280952038
5058.70 0.2282681785
5059.26 0.2284405770
5059.82 0.2286139011
5060.38 0.2285589097
5060.94 0.2283973926
5061.50 0.2282364068
5062.06 0.2280754295
5062.62 0.2279138831
5063.18 0.2277527739
5063.74 0.2275912444
5064.30 0.2274289107
5064.85 0.2272680170
5065.42 0.2271057402
5065.97 0.2269449541
5066.53 0.2267824049
5067.09 0.2266214420
5067.65 0.2264585254
5068.21 0.2262963815
5068.77 0.2261340513
5069.33 0.2259716351
5069.89 0.2258094119
5070.45 0.2258612952
5071.01 0.2259651481
5071.57 0.2260690629
5072.13 0.2261735589
5072.70 0.2262781172
5073.25 0.2263816658
5073.81 0.2264862146
5074.38 0.2265904067
5074.94 0.2266945213
5075.49 0.2267979942
5076.06 0.2269022331
5076.62 0.2270066347
5077.18 0.2271110092
5077.74 0.2272158205
5078.30 0.2273196206
5078.86 0.2274239973
5079.42 0.2275288613
5079.98 0.2276334184
5080.54 0.2275049579
5081.10 0.2273695389
5081.66 0.2272323114
5082.23 0.2270950925
5082.79 0.2269595671
5083.35 0.2268218960
5083.91 0.2266848161
5084.47 0.2265477956
5085.03 0.2264113670
5085.60 0.2262737425
5086.16 0.2261367099
5086.72 0.2259995464
5087.28 0.2258617187
5087.84 0.2257251565
5088.40 0.2255876952
5088.97 0.2254494230
5089.53 0.2253117947
5090.09 0.2251902146
5090.65 0.2251554573
5091.22 0.2251203297
5091.78 0.2250854372
5092.34 0.2250501504
5092.90 0.2250146527
5093.47 0.2249793393
5094.03 0.2249441079
5094.59 0.2249091935
5095.15 0.2248741263
5095.72 0.2248382247
5096.28 0.2248028079
5096.84 0.2247672098
5097.40 0.2247321480
5097.97 0.2246967139
5098.53 0.2246609948
5099.09 0.2246254017
5099.65 0.2245899422
5100.22 0.2245495504
5100.78 0.2245013538
5101.35 0.2244532954
5101.91 0.2244053164
5102.48 0.2243569758
5103.04 0.2243086190
5103.60 0.2242609373
5104.16 0.2242127984
5104.73 0.2241639155
5105.29 0.2241157443
5105.85 0.2240681381
5106.42 0.2240193021
5106.98 0.2239705092
5107.55 0.2239225087
5108.11 0.2238741018
5108.67 0.2238254596
5109.24 0.2237768371
5109.80 0.2237285809
5110.37 0.2237178317
5110.93 0.2237274106
5111.50 0.2237375602
5112.06 0.2237476984
5112.63 0.2237573031
5113.19 0.2237670683
5113.76 0.2237773006
5114.32 0.2237871824
5114.89 0.2237970254
5115.45 0.2238063947
5116.02 0.2238157879
5116.58 0.2238260477
5117.15 0.2238360170
5117.71 0.2238454959
5118.27 0.2238550401
5118.84 0.2238645206
5119.40 0.2238741893
5119.97 0.2238839422
5120.54 0.2238933522
5121.10 0.2239027318
5121.67 0.2239122830
5122.23 0.2239219350
5122.80 0.2239317233
5123.37 0.2239411164
5123.93 0.2239502790
5124.50 0.2239597696
5125.06 0.2239692131
5125.63 0.2239783133
5126.20 0.2239876541
5126.76 0.2239974189
5127.33 0.2240068318
5127.90 0.2240157787
5128.46 0.2240251496
5129.02 0.2240343861
5129.59 0.2240437853
5130.16 0.2240456580
5130.73 0.2240288469
5131.30 0.2240119742
5131.86 0.2239951447
5132.43 0.2239786465
5133.00 0.2239620780
5133.57 0.2239451161
5134.13 0.2239283112
5134.70 0.2239114358
5135.27 0.2238944462
5135.83 0.2238775524
5136.40 0.2238606673
5136.97 0.2238437898
5137.53 0.2238266761
5138.10 0.2238094571
5138.66 0.2237925790
5139.23 0.2237753760
5139.80 0.2237582255
5140.37 0.2237478954
5140.94 0.2237413438
5141.51 0.2237345059
5142.07 0.2237277137
5142.64 0.2237207998
5143.21 0.2237138012
5143.78 0.2237065068
5144.35 0.2236994414
5144.92 0.2236924994
5145.48 0.2236853765
5146.05 0.2236782559
5146.62 0.2236711965
5147.19 0.2236640960
5147.76 0.2236570848
5148.32 0.2236500666
5148.89 0.2236430414
5149.46 0.2236357202
5150.03 0.2236305121
5150.60 0.2236671090
5151.17 0.2237037615
5151.74 0.2237401560
5152.31 0.2237770500
5152.88 0.2238138694
5153.44 0.2238505420
5154.02 0.2238873475
5154.59 0.2239233068
5155.15 0.2239596014
5155.72 0.2239964774
5156.29 0.2240331631
5156.86 0.2240698514
5157.43 0.2241061564
5158.00 0.2241424639
5158.57 0.2241790974
5159.14 0.2242156127
5159.71 0.2242524107
5160.28 0.2243270022
5160.85 0.2244405344
5161.42 0.2245543325
5161.99 0.2246689570
5162.56 0.2247826448
5163.13 0.2248963522
5163.70 0.2250100792
5164.27 0.2251243963
5164.84 0.2252383560
5165.41 0.2253525286
5165.98 0.2254672386
5166.56 0.2255810641
5167.12 0.2256944881
5167.69 0.2258085461
5168.27 0.2259233790
5168.84 0.2260377667
5169.40 0.2261512690
5169.98 0.2262657743
5170.55 0.2264130218
5171.12 0.2265615014
5171.69 0.2267111605
5172.26 0.2268597915
5172.83 0.2270083530
5173.40 0.2271570915
5173.98 0.2273067108
5174.55 0.2274555480
5175.12 0.2276043156
5175.69 0.2277541142
5176.26 0.2279031304
5176.83 0.2280514076
5177.40 0.2282005751
5177.98 0.2283505806
5178.55 0.2284997061
5179.12 0.2286490000
5179.69 0.2287984709
5180.26 0.2288769571
5180.84 0.2288727125
5181.41 0.2288685412
5181.98 0.2288643633
5182.55 0.2288598169
5183.12 0.2288553523
5183.70 0.2288511988
5184.27 0.2288468181
5184.85 0.2288422281
5185.42 0.2288374816
5185.99 0.2288326842
5186.56 0.2288285155
5187.14 0.2288241462
5187.71 0.2288198144
5188.28 0.2288151407
5188.85 0.2288105046
5189.43 0.2288057558
5190.00 0.2288010712
5190.57 0.2289608599
5191.15 0.2291217380
5191.72 0.2292814890
5192.29 0.2294416584
5192.87 0.2296019548
5193.44 0.2297629968
5194.02 0.2299235472
5194.59 0.2300836415
5195.16 0.2302447205
5195.74 0.2304051661
5196.31 0.2305655442
5196.88 0.2307260493
5197.46 0.2308871510
5198.03 0.2310467515
5198.60 0.2312075406
5199.18 0.2313692185
5199.76 0.2315297755
5200.33 0.2316008410
5200.90 0.2316053213
5201.48 0.2316098579
5202.05 0.2316144872
5202.63 0.2316189534
5203.20 0.2316231839
5203.78 0.2316272150
5204.35 0.2316314807
5204.93 0.2316358306
5205.50 0.2316402371
5206.08 0.2316445416
5206.65 0.2316487884
5207.23 0.2316528717
5207.80 0.2316570645
5208.38 0.2316614561
5208.95 0.2316660655
5209.53 0.2316698988
5210.10 0.2316958593
5210.68 0.2318239111
5211.25 0.2319520830
5211.83 0.2320804727
5212.40 0.2322092137
5212.98 0.2323373561
5213.56 0.2324657609
5214.13 0.2325940461
5214.71 0.2327231710
5215.28 0.2328515464
5215.86 0.2329797045
5216.44 0.2331079299
5217.01 0.2332369508
5217.59 0.2333655145
5218.17 0.2334940032
5218.74 0.2336222746
5219.32 0.2337508087
5219.89 0.2338793654
5220.47 0.2339310007
5221.05 0.2339646886
5221.62 0.2339984598
5222.20 0.2340323223
5222.78 0.2340659545
5223.35 0.2340995884
5223.93 0.2341330733
5224.51 0.2341671384
5225.09 0.2342009730
5225.66 0.2342347564
5226.24 0.2342684438
5226.82 0.2343021247
5227.40 0.2343356199
5227.97 0.2343692146
5228.55 0.2344033369
5229.13 0.2344370941
5229.70 0.2344708897
5230.28 0.2345438738
5230.86 0.2346575522
5231.43 0.2347704301
5232.02 0.2348845226
5232.59 0.2349984549
5233.17 0.2351123087
5233.74 0.2352255044
5234.33 0.2353403523
5234.90 0.2354541134
5235.48 0.2355679469
5236.06 0.2356824698
5236.64 0.2357967791
5237.22 0.2359108139
5237.80 0.2360247702
5238.38 0.2361391301
5238.95 0.2362525448
5239.53 0.2363667553
5240.11 0.2364448388
5240.69 0.2363697112
5241.27 0.2362948025
5241.85 0.2362200226
5242.43 0.2361446318
5243.00 0.2360691656
5243.58 0.2359938731
5244.16 0.2359184152
5244.74 0.2358428204
5245.32 0.2357674158
5245.90 0.2356917759
5246.48 0.2356162732
5247.06 0.2355406499
5247.64 0.2354646114
5248.22 0.2353885867
5248.80 0.2353129942
5249.38 0.2352371829
5249.96 0.2351612508
5250.54 0.2351574597
5251.12 0.2351590218
5251.70 0.2351608559
5252.28 0.2351626038
5252.86 0.2351643552
5253.44 0.2351658423
5254.02 0.2351672169
5254.60 0.2351688898
5255.18 0.2351706557
5255.76 0.2351721571
5256.34 0.2351735724
5256.92 0.2351751255
5257.50 0.2351766732
5258.09 0.2351781976
5258.66 0.2351793408
5259.24 0.2351807739
5259.83 0.2351822819
5260.41 0.2352157595
5260.99 0.2352630574
5261.57 0.2353109328
5262.15 0.2353584372
5262.73 0.2354058031
5263.31 0.2354534154
5263.89 0.2355012115
5264.47 0.2355484841
5265.05 0.2355955286
5265.64 0.2356434732
5266.22 0.2356908585
5266.80 0.2357383471
5267.38 0.2357858404
5267.97 0.2358337685
5268.55 0.2358810741
5269.13 0.2359283306
5269.71 0.2359760758
5270.29 0.2359775445
5270.87 0.2359337702
5271.46 0.2358894780
5272.04 0.2358453767
5272.62 0.2358014218
5273.20 0.2357570830
5273.78 0.2357131326
5274.37 0.2356691669
5274.95 0.2356250869
5275.53 0.2355808928
5276.12 0.2355363234
5276.70 0.2354917479
5277.28 0.2354471472
5277.87 0.2354029897
5278.44 0.2353587816
5279.03 0.2353138824
5279.62 0.2352692193
5280.20 0.2351805800
5280.78 0.2350072265
5281.36 0.2348337845
5281.95 0.2346600465
5282.53 0.2344857702
5283.11 0.2343116473
5283.70 0.2341371190
5284.28 0.2339641593
5284.86 0.2337903986
5285.45 0.2336150451
5286.03 0.2334402511
5286.61 0.2332660611
5287.20 0.2330907720
5287.78 0.2329162408
5288.36 0.2327422810
5288.95 0.2325668037
5289.54 0.2323908419
5290.12 0.2322657300
5290.71 0.2323300821
5291.29 0.2323947287
5291.87 0.2324585150
5292.46 0.2325223976
5293.04 0.2325862886
5293.63 0.2326504740
5294.21 0.2327140520
5294.79 0.2327780122
5295.38 0.2328422671
5295.97 0.2329062003
5296.55 0.2329699549
5297.14 0.2330346646
5297.72 0.2330991629
5298.31 0.2331631300
5298.89 0.2332270504
5299.48 0.2332913097
5300.06 0.2333325897
5300.65 0.2331891225
5301.24 0.2330445594
5301.82 0.2329009847
5302.40 0.2327567108
5302.99 0.2326123994
5303.58 0.2324673325
5304.16 0.2323239063
5304.75 0.2321787202
5305.33 0.2320342030
5305.92 0.2318894059
5306.50 0.2317446706
5307.09 0.2315999413
5307.68 0.2314543120
5308.26 0.2313094638
5308.85 0.2311642241
5309.44 0.2310182825
5310.02 0.2308795938
5310.61 0.2308973526
5311.20 0.2309148115
5311.78 0.2309318399
5312.37 0.2309491648
5312.95 0.2309667551
5313.54 0.2309840079
5314.13 0.2310012714
5314.72 0.2310188874
5315.31 0.2310363772
5315.89 0.2310534614
5316.48 0.2310708172
5317.06 0.2310883575
5317.65 0.2311057097
5318.24 0.2311227306
5318.83 0.2311397118
5319.42 0.2311568902
5320.00 0.2311742043
5320.59 0.2310424295
5321.18 0.2309103211
5321.77 0.2307782468
5322.35 0.2306466357
5322.94 0.2305159558
5323.53 0.2303836518
5324.12 0.2302517808
5324.70 0.2301196325
5325.29 0.2299869811
5325.88 0.2298554743
5326.47 0.2297233646
5327.06 0.2295903526
5327.65 0.2294582729
5328.23 0.2293265845
5328.82 0.2291935673
5329.41 0.2290603585
5330.00 0.2289279968
5330.59 0.2290092559
5331.18 0.2290910123
5331.77 0.2291722532
5332.36 0.2292536062
5332.94 0.2293345862
5333.53 0.2294165920
5334.12 0.2294984537
5334.71 0.2295793279
5335.30 0.2296611146
5335.89 0.2297422561
5336.48 0.2298241676
5337.07 0.2299057627
5337.66 0.2299872702
5338.24 0.2300683612
5338.84 0.2301501227
5339.43 0.2302319966
5340.02 0.2303085573
5340.61 0.2302224275
5341.20 0.2301356457
5341.78 0.2300494373
5342.38 0.2299622630
5342.97 0.2298752776
5343.56 0.2297887673
5344.15 0.2297017183
5344.74 0.2296155298
5345.33 0.2295283740
5345.92 0.2294417219
5346.51 0.2293545878
5347.10 0.2292669999
5347.69 0.2291804452
5348.28 0.2290934796
5348.87 0.2290066466
5349.46 0.2289189161
5350.05 0.2288407154
5350.64 0.2288586134
5351.24 0.2288762666
5351.82 0.2288938044
5352.42 0.2289110536
5353.01 0.2289283156
5353.60 0.2289459045
5354.19 0.2289635210
5354.78 0.2289811505
5355.37 0.2289987343
5355.97 0.2290160879
5356.56 0.2290335399
5357.15 0.2290511185
5357.74 0.2290679375
5358.33 0.2290853268
5358.92 0.2291031006
5359.52 0.2291206443
5360.10 0.2291346904
5360.70 0.2291324960
5361.29 0.2291301951
5361.88 0.2291280034
5362.48 0.2291260062
5363.07 0.2291239882
5363.66 0.2291218209
5364.25 0.2291194618
5364.84 0.2291170112
5365.44 0.2291148107
5366.03 0.2291127045
5366.62 0.2291103788
5367.22 0.2291078587
5367.81 0.2291053776
5368.40 0.2291032471
5368.99 0.2291014269
5369.59 0.2290989552
5370.18 0.2291505578
5370.77 0.2293302210
5371.37 0.2295100616
5371.96 0.2296891623
5372.55 0.2298678370
5373.15 0.2300475789
5373.74 0.2302257907
5374.34 0.2304055002
5374.93 0.2305844111
5375.52 0.2307636576
5376.12 0.2309440153
5376.71 0.2311221948
5377.30 0.2313025779
5377.90 0.2314813711
5378.49 0.2316615205
5379.09 0.2318417041
5379.68 0.2320208003
5380.27 0.2321330630
5380.86 0.2321653371
5381.46 0.2321980441
5382.05 0.2322304938
5382.65 0.2322636068
5383.25 0.2322966207
5383.84 0.2323290751
5384.44 0.2323617899
5385.03 0.2323941465
5385.63 0.2324272962
5386.22 0.2324602317
5386.81 0.2324926938
5387.41 0.2325253587
5388.00 0.2325576508
5388.60 0.2325907943
5389.20 0.2326237232
5389.79 0.2326556309
5390.39 0.2327321824
5390.98 0.2328320926
5391.57 0.2329330422
5392.17 0.2330330860
5392.77 0.2331338093
5393.36 0.2332344482
5393.96 0.2333341809
5394.55 0.2334355595
5395.15 0.2335357865
5395.74 0.2336365348
5396.34 0.2337375595
5396.94 0.2338377782
5397.53 0.2339391390
5398.13 0.2340404155
5398.73 0.2341404816
5399.32 0.2342416326
5399.92 0.2343418326
5400.52 0.2343969331
5401.11 0.2344441558
5401.71 0.2344921349
5402.30 0.2345396127
5402.90 0.2345875580
5403.50 0.2346351038
5404.10 0.2346825240
5404.69 0.2347302524
5405.28 0.2347776964
5405.88 0.2348254635
5406.48 0.2348734813
5407.08 0.2349212724
5407.68 0.2349691261
5408.28 0.2350171584
5408.87 0.2350650360
5409.47 0.2351128757
5410.06 0.2351615295
5410.66 0.2352237999
5411.26 0.2352852677
5411.86 0.2353471055
5412.46 0.2354089220
5413.05 0.2354709491
5413.65 0.2355328542
5414.25 0.2355942600
5414.85 0.2356565862
5415.44 0.2357183118
5416.04 0.2357806105
5416.64 0.2358428593
5417.24 0.2359044494
5417.84 0.2359670477
5418.44 0.2360288421
5419.04 0.2360906008
5419.64 0.2361531938
5420.23 0.2362564390
5420.83 0.2364230003
5421.43 0.2365887516
5422.03 0.2367561145
5422.63 0.2369236103
5423.23 0.2370895994
5423.83 0.2372570560
5424.42 0.2374231069
5425.02 0.2375908288
5425.62 0.2377581898
5426.22 0.2379252774
5426.82 0.2380928323
5427.42 0.2382591972
5428.02 0.2384276271
5428.62 0.2385955229
5429.22 0.2387617776
5429.82 0.2389303455
5430.42 0.2390511393
5431.02 0.2391511603
5431.62 0.2392510957
5432.22 0.2393520674
5432.82 0.2394529098
5433.42 0.2395529958
5434.02 0.2396543219
5434.62 0.2397544846
5435.22 0.2398559454
5435.82 0.2399574804
5436.42 0.2400582315
5437.02 0.2401587955
5437.62 0.2402590399
5438.22 0.2403604815
5438.82 0.2404620415
5439.42 0.2405625384
5440.03 0.2406626487
5440.63 0.2407322894
5441.23 0.2408014129
5441.83 0.2408707361
5442.43 0.2409399669
5443.03 0.2410094861
5443.63 0.2410786029
5444.23 0.2411484467
5444.83 0.2412176266
5445.43 0.2412873875
5446.04 0.2413572598
5446.64 0.2414264681
5447.24 0.2414963594
5447.84 0.2415655865
5448.44 0.2416357008
5449.05 0.2417058247
5449.65 0.2417749206
5450.25 0.2418004933
5450.85 0.2417629704
5451.45 0.2417250208
5452.06 0.2416865511
5452.66 0.2416485328
5453.26 0.2416106868
5453.86 0.2415727824
5454.46 0.2415345615
5455.07 0.2414964281
5455.67 0.2414588316
5456.27 0.2414206696
5456.87 0.2413826806
5457.48 0.2413443878
5458.08 0.2413060806
5458.68 0.2412684131
5459.29 0.2412303257
5459.89 0.2411926299
5460.49 0.2412947672
5461.10 0.2414297698
5461.70 0.2415631002
5462.30 0.2416981063
5462.91 0.2418335896
5463.51 0.2419672977
5464.11 0.2421011315
5464.71 0.2422364821
5465.32 0.2423718566
5465.92 0.2425058640
5466.53 0.2426414910
5467.13 0.2427755458
5467.73 0.2429111629
5468.34 0.2430466574
5468.94 0.2431809880
5469.55 0.2433168820
5470.15 0.2434307874
5470.75 0.2434810391
5471.36 0.2435311936
5471.96 0.2435809392
5472.57 0.2436312063
5473.17 0.2436815810
5473.77 0.2437315912
5474.38 0.2437820787
5474.98 0.2438320992
5475.59 0.2438825391
5476.19 0.2439323649
5476.80 0.2439829755
5477.40 0.2440331190
5478.01 0.2440839896
5478.62 0.2441343529
5479.22 0.2441843068
5479.82 0.2442352957
5480.43 0.2442599285
5481.03 0.2442744110
5481.64 0.2442891983
5482.24 0.2443038182
5482.85 0.2443186002
5483.46 0.2443331742
5484.06 0.2443475807
5484.67 0.2443621492
5485.28 0.2443766122
5485.88 0.2443911577
5486.48 0.2444058613
5487.09 0.2444208740
5487.70 0.2444355314
5488.30 0.2444500660
5488.91 0.2444643071
5489.51 0.2444792472
5490.12 0.2445340058
5490.73 0.2447431405
5491.33 0.2449549017
5491.94 0.2451671596
5492.55 0.2453769292
5493.16 0.2455890050
5493.77 0.2458010771
5494.37 0.2460110709
5494.98 0.2462233722
5495.59 0.2464362868
5496.19 0.2466469162
5496.79 0.2468571165
5497.40 0.2470694335
5498.01 0.2472821452
5498.62 0.2474925699
5499.23 0.2477054662
5499.83 0.2479164865
5500.44 0.2478355524
5501.04 0.2476433977
5501.65 0.2474483760
5502.27 0.2472536588
5502.87 0.2470613583
5503.48 0.2468666012
5504.09 0.2466715888
5504.69 0.2464787307
5505.30 0.2462834589
5505.91 0.2460883438
5506.52 0.2458952367
5507.13 0.2457010232
5507.73 0.2455066131
5508.35 0.2453113016
5508.95 0.2451180448
5509.56 0.2449223257
5510.17 0.2447807342
5510.78 0.2447782803
5511.38 0.2447753471
5511.99 0.2447723644
5512.60 0.2447700083
5513.21 0.2447673949
5513.82 0.2447645987
5514.43 0.2447615306
5515.04 0.2447586024
5515.65 0.2447558595
5516.26 0.2447532143
5516.87 0.2447503252
5517.48 0.2447475336
5518.09 0.2447449120
5518.70 0.2447422840
5519.30 0.2447394131
5519.91 0.2447364918
5520.53 0.2446737493
5521.13 0.2446021456
5521.74 0.2445304613
5522.35 0.2444577366
5522.96 0.2443847830
5523.57 0.2443133433
5524.18 0.2442410101
5524.80 0.2441681972
5525.40 0.2440962786
5526.02 0.2440238794
5526.62 0.2439516952
5527.23 0.2438794299
5527.85 0.2438066543
5528.46 0.2437337532
5529.07 0.2436613932
5529.68 0.2435895289
5530.29 0.2435403048
5530.90 0.2435168949
5531.51 0.2434942449
5532.12 0.2434714495
5532.73 0.2434476673
5533.34 0.2434241535
5533.95 0.2434011490
5534.56 0.2433781307
5535.18 0.2433551014
5535.79 0.2433319604
5536.40 0.2433089090
5537.01 0.2432858464
5537.62 0.2432625091
5538.24 0.2432392171
5538.85 0.2432163725
5539.46 0.2431930619
5540.07 0.2431581412
5540.68 0.2430339950
5541.30 0.2429087464
5541.90 0.2427845056
5542.52 0.2426603031
5543.13 0.2425353249
5543.74 0.2424100181
5544.35 0.2422858954
5544.97 0.2421606528
5545.58 0.2420359718
5546.19 0.2419107987
5546.81 0.2417847721
5547.42 0.2416590832
5548.03 0.2415347604
5548.64 0.2414099121
5549.26 0.2412834655
5549.87 0.2411589388
5550.48 0.2411731984
5551.10 0.2412251801
5551.71 0.2412771240
5552.32 0.2413288827
5552.94 0.2413815312
5553.55 0.2414333880
5554.16 0.2414852938
5554.77 0.2415371787
5555.39 0.2415896420
5556.00 0.2416421110
5556.61 0.2416937008
5557.23 0.2417461206
5557.85 0.2417987106
5558.45 0.2418508371
5559.07 0.2419029959
5559.69 0.2419557504
5560.30 0.2418755072
5560.91 0.2416545309
5561.53 0.2414357805
5562.14 0.2412147383
5562.75 0.2409955238
5563.37 0.2407740599
5563.99 0.2405524368
5564.60 0.2403328945
5565.21 0.2401121779
5565.83 0.2398917192
5566.44 0.2396699810
5567.06 0.2394503688
5567.67 0.2392281043
5568.29 0.2390061402
5568.90 0.2387864260
5569.52 0.2385644564
5570.13 0.2384068860
5570.75 0.2384788685
5571.37 0.2385509896
5571.98 0.2386224467
5572.60 0.2386949622
5573.21 0.2387672979
5573.82 0.2388394352
5574.44 0.2389120241
5575.06 0.2389838872
5575.67 0.2390561591
5576.29 0.2391288829
5576.90 0.2392014882
5577.52 0.2392733917
5578.14 0.2393459373
5578.75 0.2394181985
5579.37 0.2394908874
5579.98 0.2395640901
5580.60 0.2394157438
5581.22 0.2392638638
5581.83 0.2391117597
5582.45 0.2389590940
5583.07 0.2388054723
5583.69 0.2386519151
5584.30 0.2384996293
5584.92 0.2383458882
5585.53 0.2381937753
5586.15 0.2380402683
5586.77 0.2378873680
5587.39 0.2377345948
5588.00 0.2375821153
5588.62 0.2374278219
5589.24 0.2372736356
5589.85 0.2371213514
5590.47 0.2370304599
5591.09 0.2369584203
5591.71 0.2368873379
5592.32 0.2368161519
5592.94 0.2367448621
5593.56 0.2366736331
5594.18 0.2366018813
5594.79 0.2365309012
5595.41 0.2364592532
5596.03 0.2363876239
5596.65 0.2363161201
5597.27 0.2362441976
5597.89 0.2361731103
5598.50 0.2361018561
5599.12 0.2360304757
5599.74 0.2359582571
5600.36 0.2358078550
5600.98 0.2355988251
5601.60 0.2353886742
5602.21 0.2351792886
5602.84 0.2349687186
5603.45 0.2347592707
5604.07 0.2345499387
5604.69 0.2343393168
5605.31 0.2341307412
5605.93 0.2339199100
5606.55 0.2337102019
5607.17 0.2335005051
5607.79 0.2332897052
5608.40 0.2330808291
5609.02 0.2328709130
5609.65 0.2326598097
5610.27 0.2325205499
5610.88 0.2324761520
5611.50 0.2324317581
5612.12 0.2323871993
5612.74 0.2323431945
5613.36 0.2322985632
5613.99 0.2322536425
5614.60 0.2322095087
5615.22 0.2321652320
5615.84 0.2321206247
5616.47 0.2320756417
5617.09 0.2320309395
5617.70 0.2319864321
5618.33 0.2319419279
5618.94 0.2318982119
5619.57 0.2318532561
5620.19 0.2317921748
5620.81 0.2316929981
5621.43 0.2315941962
5622.05 0.2314943928
5622.67 0.2313950283
5623.29 0.2312959930
5623.91 0.2311968891
5624.54 0.2310963613
5625.15 0.2309973305
5625.77 0.2308980386
5626.40 0.2307981463
5627.02 0.2306986296
5627.64 0.2305985764
5628.26 0.2304994082
5628.89 0.2303992996
5629.51 0.2302995671
5630.13 0.2302497874
5630.75 0.2303911954
5631.37 0.2305323537
5631.99 0.2306734966
5632.61 0.2308151921
5633.24 0.2309574988
5633.86 0.2310981738
5634.48 0.2312403212
5635.10 0.2313809826
5635.73 0.2315237088
5636.35 0.2316662499
5636.97 0.2318071989
5637.60 0.2319495806
5638.22 0.2320920937
5638.84 0.2322340870
5639.46 0.2323758950
5640.09 0.2324657366
5640.71 0.2322343455
5641.33 0.2320028333
5641.95 0.2317709065
5642.58 0.2315390695
5643.20 0.2313069644
5643.82 0.2310737226
5644.44 0.2308427540
5645.07 0.2306094389
5645.69 0.2303786741
5646.32 0.2301450334
5646.94 0.2299109126
5647.57 0.2296783031
5648.19 0.2294458481
5648.81 0.2292130597
5649.44 0.2289789210
5650.06 0.2287501013
5650.69 0.2285580643
5651.31 0.2283658736
5651.94 0.2281722752
5652.56 0.2279808847
5653.18 0.2277874013
5653.81 0.2275954265
5654.43 0.2274016349
5655.06 0.2272088382
5655.68 0.2270162052
5656.30 0.2268243564
5656.93 0.2266304773
5657.56 0.2264365497
5658.18 0.2262434465
5658.80 0.2260503611
5659.43 0.2258569099
5660.05 0.2256808209
5660.68 0.2256921960
5661.31 0.2257037799
5661.93 0.2257153997
5662.56 0.2257262359
5663.18 0.2257372674
5663.81 0.2257490377
5664.43 0.2257604735
5665.06 0.2257721456
5665.68 0.2257835891
5666.31 0.2257950296
5666.93 0.2258062949
5667.56 0.2258176234
5668.19 0.2258290022
5668.81 0.2258400991
5669.44 0.2258516442
5670.06 0.2258592869
5670.69 0.2258338173
5671.32 0.2258083102
5671.94 0.2257830306
5672.57 0.2257575409
5673.20 0.2257321330
5673.83 0.2257064352
5674.45 0.2256811112
5675.08 0.2256556699
5675.70 0.2256297927
5676.33 0.2256042229
5676.96 0.2255788942
5677.59 0.2255528901
5678.21 0.2255272740
5678.84 0.2255017123
5679.46 0.2254761137
5680.09 0.2254101384
5680.72 0.2251123993
5681.35 0.2248172218
5681.98 0.2245193402
5682.60 0.2242221194
5683.23 0.2239250009
5683.86 0.2236267318
5684.49 0.2233294039
5685.11 0.2230323242
5685.75 0.2227333087
5686.37 0.2224374589
5687.00 0.2221402053
5687.62 0.2218423094
5688.26 0.2215430079
5688.88 0.2212452213
5689.51 0.2209470440
5690.14 0.2206965567
5690.77 0.2206108110
5691.40 0.2205254571
5692.03 0.2204394496
5692.65 0.2203540472
5693.28 0.2202685527
5693.91 0.2201828887
5694.54 0.2200967835
5695.17 0.2200107991
5695.80 0.2199256924
5696.43 0.2198395527
5697.06 0.2197535925
5697.69 0.2196676761
5698.31 0.2195822981
5698.95 0.2194963806
5699.57 0.2194104299
5700.20 0.2193383218
5700.83 0.2192955296
5701.46 0.2192524026
5702.09 0.2192092607
5702.72 0.2191663174
5703.35 0.2191229793
5703.98 0.2190795793
5704.61 0.2190363779
5705.24 0.2189933152
5705.87 0.2189507631
5706.50 0.2189074103
5707.14 0.2188639825
5707.77 0.2188207451
5708.40 0.2187774928
5709.03 0.2187340120
5709.66 0.2186910505
5710.29 0.2186112083
5710.92 0.2184869923
5711.55 0.2183623239
5712.18 0.2182388898
5712.81 0.2181147208
5713.44 0.2179906947
5714.07 0.2178659331
5714.70 0.2177408176
5715.33 0.2176168997
5715.97 0.2174920392
5716.60 0.2173676734
5717.23 0.2172432748
5717.86 0.2171180635
5718.49 0.2169934922
5719.12 0.2168688191
5719.76 0.2167432256
5720.39 0.2164791746
5721.02 0.2161253517
5721.65 0.2157710173
5722.28 0.2154151438
5722.91 0.2150605349
5723.54 0.2147075509
5724.17 0.2143525989
5724.81 0.2139959612
5725.44 0.2136407344
5726.07 0.2132855311
5726.71 0.2129288554
5727.34 0.2125734473
5727.97 0.2122170652
5728.61 0.2118597083
5729.24 0.2115040860
5729.87 0.2111478440
5730.51 0.2111293147
5731.14 0.2111966047
5731.77 0.2112646249
5732.40 0.2113318271
5733.04 0.2113995820
5733.67 0.2114673065
5734.30 0.2115348631
5734.93 0.2116021041
5735.57 0.2116699686
5736.20 0.2117376619
5736.83 0.2118056869
5737.47 0.2118737622
5738.10 0.2119413774
5738.74 0.2120091099
5739.37 0.2120771073
5740.01 0.2121414221
5740.64 0.2118964676
5741.28 0.2116499898
5741.91 0.2114059881
5742.54 0.2111592836
5743.18 0.2109123043
5743.81 0.2106674097
5744.44 0.2104212394
5745.08 0.2101752613
5745.72 0.2099281508
5746.35 0.2096833421
5746.98 0.2094371858
5747.61 0.2091910777
5748.25 0.2089432269
5748.89 0.2086965693
5749.52 0.2084501036
5750.16 0.2082322734
5750.79 0.2081067593
5751.43 0.2079808534
5752.06 0.2078539828
5752.70 0.2077291229
5753.34 0.2076027245
5753.97 0.2074760776
5754.60 0.2073506529
5755.24 0.2072242987
5755.88 0.2070978756
5756.51 0.2069709888
5757.15 0.2068448229
5757.78 0.2067193783
5758.42 0.2065927517
5759.05 0.2064655171
5759.69 0.2063388243
5760.33 0.2061805148
5760.96 0.2059914044
5761.60 0.2058027147
5762.24 0.2056138704
5762.88 0.2054239002
5763.51 0.2052361497
5764.15 0.2050465170
5764.79 0.2048565136
5765.42 0.2046681921
5766.06 0.2044779145
5766.69 0.2042901119
5767.33 0.2040999562
5767.97 0.2039101515
5768.60 0.2037206592
5769.24 0.2035321665
5769.88 0.2033414988
5770.51 0.2032204363
5771.15 0.2031156495
5771.79 0.2030102922
5772.43 0.2029056652
5773.06 0.2028009751
5773.70 0.2026955681
5774.34 0.2025905327
5774.98 0.2024849288
5775.62 0.2023796531
5776.25 0.2022750766
5776.90 0.2021693120
5777.53 0.2020645715
5778.17 0.2019589315
5778.81 0.2018538422
5779.44 0.2017481840
5780.09 0.2016353552
5780.72 0.2014830928
5781.36 0.2013297414
5782.00 0.2011762431
5782.64 0.2010219793
5783.27 0.2008691301
5783.91 0.2007145718
5784.56 0.2005602644
5785.19 0.2004067883
5785.83 0.2002526584
5786.47 0.2000980519
5787.11 0.1999450054
5787.75 0.1997904291
5788.39 0.1996364684
5789.03 0.1994822178
5789.67 0.1993283960
5790.31 0.1992239454
5790.95 0.1991732117
5791.59 0.1991231174
5792.23 0.1990730071
5792.86 0.1990227779
5793.51 0.1989724480
5794.14 0.1989222900
5794.78 0.1988721161
5795.43 0.1988214128
5796.06 0.1987706646
5796.70 0.1987203686
5797.35 0.1986698340
5797.98 0.1986195860
5798.63 0.1985686938
5799.27 0.1985181511
5799.91 0.1984678495
5800.55 0.1982114642
5801.19 0.1979233707
5801.83 0.1976322246
5802.47 0.1973427189
5803.11 0.1970530359
5803.75 0.1967627751
5804.39 0.1964726287
5805.03 0.1961823388
5805.67 0.1958920548
5806.31 0.1956017358
5806.96 0.1953096014
5807.60 0.1950189269
5808.24 0.1947266537
5808.88 0.1944370115
5809.52 0.1941445245
5810.17 0.1939050016
5810.81 0.1938128708
5811.45 0.1937200537
5812.09 0.1936278814
5812.73 0.1935354823
5813.38 0.1934430335
5814.02 0.1933503753
5814.66 0.1932573564
5815.30 0.1931652766
5815.94 0.1930727606
5816.58 0.1929801106
5817.23 0.1928870995
5817.87 0.1927947351
5818.51 0.1927016735
5819.16 0.1926084776
5819.80 0.1925159290
5820.44 0.1922707406
5821.08 0.1919573122
5821.73 0.1916434072
5822.37 0.1913281103
5823.02 0.1910141331
5823.66 0.1907001147
5824.30 0.1903859897
5824.94 0.1900714963
5825.59 0.1897553914
5826.23 0.1894422875
5826.88 0.1891259247
5827.52 0.1888130004
5828.16 0.1884964888
5828.80 0.1881815507
5829.45 0.1878664294
5830.09 0.1875761283
5830.73 0.1874433087
5831.38 0.1873091525
5832.03 0.1871751480
5832.67 0.1870425542
5833.31 0.1869082952
5833.96 0.1867745609
5834.60 0.1866409017
5835.25 0.1865065399
5835.89 0.1863734811
5836.54 0.1862389417
5837.18 0.1861057058
5837.82 0.1859710979
5838.47 0.1858373434
5839.11 0.1857034774
5839.76 0.1855693269
5840.40 0.1853576540
5841.05 0.1850997257
5841.69 0.1848417044
5842.34 0.1845821080
5842.99 0.1843224496
5843.63 0.1840656019
5844.28 0.1838059291
5844.92 0.1835470845
5845.57 0.1832886158
5846.22 0.1830285385
5846.86 0.1827707279
5847.51 0.1825103080
5848.15 0.1822524843
5848.80 0.1819921906
5849.44 0.1817328050
5850.09 0.1814903572
5850.73 0.1813563208
5851.38 0.1812222815
5852.03 0.1810874249
5852.67 0.1809537413
5853.32 0.1808187377
5853.97 0.1806836687
5854.61 0.1805498046
5855.26 0.1804145576
5855.91 0.1802799510
5856.55 0.1801454198
5857.20 0.1800102102
5857.85 0.1798753915
5858.49 0.1797404597
5859.14 0.1796062482
5859.79 0.1794704629
5860.44 0.1792247562
5861.08 0.1789286534
5861.73 0.1786297329
5862.38 0.1783331921
5863.02 0.1780336616
5863.67 0.1777355360
5864.32 0.1774370414
5864.97 0.1771388852
5865.61 0.1768404394
5866.26 0.1765402874
5866.91 0.1762417008
5867.56 0.1759427148
5868.21 0.1756421310
5868.86 0.1753428942
5869.50 0.1750436171
5870.15 0.1747767849
5870.80 0.1746148072
5871.45 0.1744521094
5872.10 0.1742911414
5872.75 0.1741285029
5873.39 0.1739672653
5874.04 0.1738044068
5874.69 0.1736422988
5875.34 0.1734798210
5875.99 0.1733172226
5876.64 0.1731549945
5877.29 0.1729920742
5877.94 0.1728287542
5878.59 0.1726673370
5879.24 0.1725040758
5879.89 0.1723412365
5880.53 0.1720118611
5881.19 0.1716450775
5881.83 0.1712815558
5882.48 0.1709144918
5883.13 0.1705509114
5883.78 0.1701834568
5884.43 0.1698194874
5885.08 0.1694520013
5885.73 0.1690859667
5886.38 0.1687198759
5887.03 0.1683514724
5887.68 0.1679870803
5888.33 0.1676183958
5888.99 0.1672500663
5889.63 0.1668851998
5890.29 0.1665979643
5890.93 0.1664176147
5891.59 0.1662357370
5892.24 0.1660539252
5892.89 0.1658738851
5893.54 0.1656919027
5894.19 0.1655107563
5894.84 0.1653295658
5895.49 0.1651480285
5896.14 0.1649664470
5896.80 0.1647843255
5897.44 0.1646036755
5898.10 0.1644210520
5898.74 0.1642399830
5899.40 0.1640571327
5900.05 0.1638622858
5900.70 0.1635152043
5901.35 0.1631659164
5902.00 0.1628198054
5902.66 0.1624698306
5903.31 0.1621200781
5903.96 0.1617715151
5904.61 0.1614233964
5905.27 0.1610751136
5905.92 0.1607263913
5906.57 0.1603775048
5907.22 0.1600287584
5907.88 0.1596775801
5908.53 0.1593301385
5909.18 0.1589792396
5909.83 0.1586300586
5910.48 0.1583879719
5911.14 0.1581831056
5911.79 0.1579784382
5912.44 0.1577723368
5913.10 0.1575671284
5913.75 0.1573618442
5914.41 0.1571556211
5915.06 0.1569503757
5915.71 0.1567449440
5916.36 0.1565392682
5917.02 0.1563335431
5917.67 0.1561272943
5918.32 0.1559224992
5918.98 0.1557151548
5919.63 0.1555104831
5920.29 0.1552681679
5920.94 0.1549826216
5921.59 0.1546945322
5922.25 0.1544076007
5922.90 0.1541204913
5923.56 0.1538314494
5924.21 0.1535440945
5924.86 0.1532568093
5925.52 0.1529675385
5926.17 0.1526811245
5926.83 0.1523917442
5927.49 0.1521021593
5928.14 0.1518154590
5928.79 0.1515257389
5929.45 0.1512373424
5930.10 0.1509775944
5930.76 0.1508720523
5931.41 0.1507665087
5932.07 0.1506609127
5932.72 0.1505552041
5933.38 0.1504488783
5934.03 0.1503434584
5934.69 0.1502373004
5935.34 0.1501314836
5936.00 0.1500255287
5936.66 0.1499193145
5937.31 0.1498141186
5937.97 0.1497077138
5938.62 0.1496015396
5939.28 0.1494947721
5939.94 0.1493889882
5940.59 0.1492090538
5941.25 0.1490213796
5941.90 0.1488336854
5942.56 0.1486457237
5943.21 0.1484576919
5943.87 0.1482700850
5944.53 0.1480810616
5945.18 0.1478937346
5945.84 0.1477048431
5946.50 0.1475164128
5947.15 0.1473278012
5947.81 0.1471386621
5948.47 0.1469499846
5949.13 0.1467613485
5949.78 0.1465728900
5950.44 0.1463280669
5951.10 0.1460538598
5951.76 0.1457816065
5952.41 0.1455088929
5953.07 0.1452347160
5953.73 0.1449630897
5954.38 0.1446898261
5955.04 0.1444167215
5955.70 0.1441418668
5956.36 0.1438684114
5957.02 0.1435946692
5957.67 0.1433211975
5958.33 0.1430472401
5958.99 0.1427719524
5959.65 0.1424978427
5960.31 0.1422929570
5960.96 0.1421676683
5961.62 0.1420419023
5962.28 0.1419155070
5962.94 0.1417891917
5963.60 0.1416639300
5964.26 0.1415375520
5964.92 0.1414117412
5965.58 0.1412858992
5966.23 0.1411604015
5966.89 0.1410335868
5967.55 0.1409074277
5968.21 0.1407812610
5968.87 0.1406545752
5969.53 0.1405289218
5970.19 0.1404254111
5970.85 0.1403807284
5971.51 0.1403355029
5972.17 0.1402905288
5972.82 0.1402454295
5973.49 0.1402003873
5974.15 0.1401553731
5974.81 0.1401099921
5975.47 0.1400648393
5976.13 0.1400198084
5976.79 0.1399746288
5977.45 0.1399295712
5978.11 0.1398845887
5978.77 0.1398395043
5979.43 0.1397942947
5980.09 0.1397433227
5980.75 0.1396582844
5981.41 0.1395725805
5982.07 0.1394876099
5982.73 0.1394017494
5983.39 0.1393155538
5984.05 0.1392300687
5984.71 0.1391435810
5985.37 0.1390575843
5986.03 0.1389714299
5986.70 0.1388846738
5987.36 0.1387983625
5988.02 0.1387118510
5988.68 0.1386245789
5989.34 0.1385383549
5990.00 0.1384518649
5990.66 0.1384064946
5991.33 0.1383608440
5991.99 0.1383154469
5992.65 0.1382699244
5993.31 0.1382245666
5993.97 0.1381788620
5994.64 0.1381330549
5995.30 0.1380877029
5995.96 0.1380421363
5996.62 0.1379966684
5997.28 0.1379510749
5997.95 0.1379053125
5998.61 0.1378594243
5999.27 0.1378139230
5999.94 0.1377679185
6000.60 0.1374893676
6001.26 0.1371862699
6001.92 0.1368849429
6002.59 0.1365803132
6003.25 0.1362770276
6003.91 0.1359735594
6004.57 0.1356702229
6005.24 0.1353663893
6005.90 0.1350612940
6006.56 0.1347587132
6007.23 0.1344532743
6007.89 0.1341492712
6008.55 0.1338449730
6009.22 0.1335394340
6009.88 0.1332352195
6010.55 0.1329663868
6011.21 0.1327040600
6011.88 0.1324430683
6012.54 0.1321817002
6013.21 0.1319189866
6013.87 0.1316587592
6014.53 0.1313973208
6015.19 0.1311357996
6015.86 0.1308728412
6016.52 0.1306123931
6017.19 0.1303493121
6017.85 0.1300885174
6018.52 0.1298251103
6019.18 0.1295630197
6019.85 0.1293005301
6020.51 0.1287696807
6021.18 0.1281612599
6021.84 0.1275526804
6022.51 0.1269412303
6023.17 0.1263322627
6023.84 0.1257228404
6024.51 0.1251104117
6025.17 0.1245010517
6025.83 0.1238940655
6026.50 0.1232841133
6027.17 0.1226707932
6027.83 0.1220633037
6028.50 0.1214494812
6029.16 0.1208383003
6029.83 0.1202274127
6030.49 0.1196208420
6031.16 0.1190082916
6031.83 0.1183957153
6032.50 0.1177826615
6033.16 0.1171757681
6033.82 0.1165654286
6034.50 0.1159487431
6035.16 0.1153407803
6035.83 0.1147266959
6036.49 0.1141186849
6037.16 0.1135042109
6037.83 0.1128923327
6038.49 0.1122800301
6039.16 0.1116707703
6039.83 0.1110556862
6040.49 0.1102500500
6041.16 0.1093755217
6041.83 0.1084972900
6042.49 0.1076275673
6043.16 0.1067479250
6043.83 0.1058686278
6044.50 0.1049931303
6045.16 0.1041218878
6045.83 0.1032451851
6046.50 0.1023643090
6047.17 0.1014876662
6047.84 0.1006101650
6048.51 0.0997280347
6049.17 0.0988507802
6049.84 0.0979717723
6050.51 0.0969545276
6051.18 0.0959064040
6051.85 0.0948519047
6052.51 0.0937969777
6053.18 0.0927371605
6053.85 0.0916817395
6054.52 0.0906261172
6055.19 0.0895647746
6055.86 0.0885076609
6056.53 0.0874503603
6057.19 0.0863981851
6057.86 0.0853357039
6058.53 0.0842775152
6059.20 0.0832183309
6059.87 0.0821543020
6060.54 0.0810780847
6061.21 0.0799967413
6061.88 0.0789095812
6062.55 0.0778275738
6063.22 0.0767508587
6063.89 0.0756683937
6064.56 0.0745799711
6065.23 0.0734960368
6065.90 0.0724118266
6066.57 0.0713226087
6067.24 0.0702378476
6067.91 0.0691519596
6068.58 0.0680610259
6069.25 0.0669808562
6069.92 0.0658940740
6070.59 0.0649225131
6071.26 0.0639619008
6071.93 0.0630060090
6072.60 0.0620496774
6073.27 0.0610882082
6073.94 0.0601307003
6074.61 0.0591736844
6075.28 0.0582205768
6075.96 0.0572573757
6076.63 0.0562987665
6077.30 0.0553392259
6077.97 0.0543752905
6078.64 0.0534152883
6079.31 0.0524556784
6079.99 0.0514902094
6080.66 0.0506362089
6081.33 0.0497878776
6082.00 0.0489356157
6082.67 0.0480788628
6083.34 0.0472255725
6084.01 0.0463720550
6084.69 0.0455140131
6085.36 0.0446601495
6086.03 0.0438061118
6086.71 0.0429475505
6087.38 0.0420967644
6088.05 0.0412413264
6088.72 0.0403858764
6089.39 0.0395258641
6090.06 0.0386906774
6090.74 0.0380471353
6091.41 0.0373997359
6092.09 0.0367558957
6092.76 0.0361113653
6093.43 0.0354700039
6094.10 0.0348219151
6094.77 0.0341768869
6095.45 0.0335312078
6096.12 0.0328825609
6096.80 0.0322365146
6097.47 0.0315903361
6098.15 0.0309406859
6098.81 0.0302973158
6099.49 0.0296505816
6100.16 0.0290370530
6100.84 0.0285291151
6101.51 0.0280232081
6102.18 0.0275171705
6102.86 0.0270084026
6103.53 0.0265020940
6104.21 0.0259952844
6104.88 0.0254861201
6105.56 0.0249816092
6106.23 0.0244743593
6106.90 0.0239669700
6107.58 0.0234568815
6108.25 0.0229492095
6108.93 0.0224414287
6109.60 0.0219305428
6110.28 0.0214845451
6110.95 0.0211223503
6111.62 0.0207600670
6112.30 0.0203958569
6112.98 0.0200334122
6113.65 0.0196706549
6114.33 0.0193062051
6115.00 0.0189432095
6115.68 0.0185801676
6116.36 0.0182151884
6117.03 0.0178538047
6117.70 0.0174902263
6118.38 0.0171265757
6119.06 0.0167612496
6119.73 0.0163974030
6120.41 0.0160862319
6121.09 0.0158081919
6121.76 0.0155327007
6122.44 0.0152545144
6123.11 0.0149788434
6123.79 0.0147002725
6124.46 0.0144232345
6125.14 0.0141457270
6125.82 0.0138669473
6126.50 0.0135894860
6127.17 0.0133117452
6127.85 0.0130327223
6128.52 0.0127562280
6129.20 0.0124782451
6129.88 0.0121999731
6130.56 0.0119809337
6131.23 0.0117762483
6131.91 0.0115713818
6132.59 0.0113654343
6133.26 0.0111615079
6133.94 0.0109554633
6134.62 0.0107493676
6135.30 0.0105453052
6135.97 0.0103400332
6136.65 0.0101346836
6137.33 0.0099282577
6138.01 0.0097228282
6138.69 0.0095173478
6139.37 0.0093107907
6140.04 0.0091091543
6140.72 0.0089524022
6141.40 0.0087970637
6142.08 0.0086401104
6142.76 0.0084838967
6143.43 0.0083276382
6144.11 0.0081704397
6144.79 0.0080140966
6145.47 0.0078575913
6146.15 0.0077002557
6146.83 0.0075444672
6147.51 0.0073878415
6148.18 0.0072311743
6148.87 0.0070735713
6149.54 0.0069168147
6150.22 0.0067754397
6150.90 0.0066653100
6151.58 0.0065562499
6152.26 0.0064460587
6152.94 0.0063357552
6153.62 0.0062266073
6154.30 0.0061167967
6154.98 0.0060069604
6155.66 0.0058965337
6156.34 0.0057866303
6157.02 0.0056766964
6157.70 0.0055661094
6158.38 0.0054566673
6159.06 0.0053460044
6159.74 0.0052364201
6160.42 0.0051438582
6161.10 0.0050629917
6161.78 0.0049820345
6162.46 0.0049007193
6163.14 0.0048197365
6163.82 0.0047387265
6164.51 0.0046572965
6165.19 0.0045766612
6165.86 0.0044955880
6166.55 0.0044144448
6167.23 0.0043329333
6167.91 0.0042517489
6168.59 0.0041705459
6169.27 0.0040889153
6169.95 0.0040080847
6170.64 0.0039459419
6171.32 0.0038853213
6172.00 0.0038252504
6172.68 0.0037648574
6173.36 0.0037044475
6174.05 0.0036437169
6174.73 0.0035832708
6175.41 0.0035227668
6176.09 0.0034619847
6176.77 0.0034017526
6177.46 0.0033408931
6178.13 0.0032806234
6178.82 0.0032197323
6179.50 0.0031590839
6180.18 0.0031107262
6180.87 0.0030957976
6181.55 0.0030810061
6182.23 0.0030660592
6182.91 0.0030511865
6183.60 0.0030363089
6184.28 0.0030214141
6184.96 0.0030065117
6185.65 0.0029915502
6186.33 0.0029766457
6187.01 0.0029617333
6187.70 0.0029467367
6188.38 0.0029318943
6189.06 0.0029168879
6189.75 0.0029019631
6190.43 0.0028870164
6191.11 0.0028720617
6191.80 0.0028571025
6192.48 0.0028420537
6193.16 0.0028271617
6193.85 0.0028121049
6194.53 0.0027971183
6195.22 0.0027821276
6195.90 0.0027670571
6196.59 0.0027521344
6197.27 0.0027370583
6197.96 0.0027220448
6198.64 0.0027070267
6199.33 0.0026919381
6200.01 0.0026768146
6200.70 0.0026489906
6201.38 0.0026213002
6202.06 0.0025935829
6202.75 0.0025658736
6203.43 0.0025381381
6204.12 0.0025102540
6204.80 0.0024826407
6205.49 0.0024547442
6206.18 0.0024268197
6206.86 0.0023991833
6207.55 0.0023712414
6208.23 0.0023434292
6208.92 0.0023156108
6209.60 0.0022877842
6210.29 0.0022599046
6210.98 0.0022318668
6211.66 0.0022040783
6212.35 0.0021760059
6213.04 0.0021479261
6213.72 0.0021201178
6214.41 0.0020920267
6215.09 0.0020642084
6215.78 0.0020360826
6216.46 0.0020082301
6217.15 0.0019800919
6217.84 0.0019519465
6218.52 0.0019240751
6219.21 0.0018959171
6219.90 0.0018678739
6220.59 0.0018398224
6221.27 0.0018117842
6221.96 0.0017837176
6222.65 0.0017554879
6223.33 0.0017275501
6224.02 0.0016993273
6224.71 0.0016710749
6225.40 0.0016430977
6226.09 0.0016148351
6226.77 0.0015867029
6227.46 0.0015585645
6228.15 0.0015305624
6228.84 0.0015022551
6229.53 0.0014739392
6230.21 0.0014459010
6230.90 0.0014175876
6231.59 0.0013892645
6232.28 0.0013612145
6232.97 0.0013329994
6233.65 0.0013047977
6234.34 0.0012764298
6235.03 0.0012483340
6235.72 0.0012199511
6236.41 0.0011915582
6237.10 0.0011634203
